BEGIN IONS
CHARGE=2+
PEPMASS=1498.616864
TITLE=MS/MS scan at 10.246 min with Intensity: 228.0 and Sequence ETTENESANEGYR


101.068373 10.000000
102.049888 12.000000
102.051305 12.000000
102.052723 12.000000
102.054141 48.000000
102.055559 24.000000
102.056976 24.000000
102.058394 12.000000
102.059812 12.000000
102.061230 12.000000
102.065483 12.000000
102.066901 24.000000
102.069737 12.000000
110.503110 10.000000
112.041213 10.000000
112.085782 24.000000
113.065558 10.000000
115.075533 10.000000
126.055086 10.000000
127.090831 10.000000
130.090602 12.000000
130.098605 12.000000
131.857299 10.000000
136.065761 10.000000
139.084616 10.000000
140.069470 12.000000
140.071131 12.000000
140.072792 24.000000
140.077775 12.000000
140.079436 12.000000
140.084419 12.000000
140.089402 12.000000
148.066561 12.000000
148.068269 12.000000
149.722497 12.000000
149.732800 12.000000
152.051432 12.000000
152.053162 12.000000
152.072199 12.000000
155.023258 10.000000
157.088459 10.000000
158.076775 12.000000
158.080304 12.000000
158.083833 12.000000
158.085597 12.000000
158.094420 12.000000
158.097949 12.000000
158.099713 12.000000
158.101478 12.000000
159.091201 10.000000
161.090597 10.000000
163.048715 10.000000
167.047594 12.000000
167.074803 12.000000
167.085687 12.000000
167.089315 12.000000
168.079445 12.000000
168.086723 12.000000
169.072500 10.000000
170.044688 12.000000
170.046518 12.000000
171.080233 10.000000
175.107109 12.000000
175.110824 12.000000
175.112681 12.000000
175.116395 36.000000
175.118252 62.000000
175.120109 48.000000
175.121966 48.000000
175.125681 36.000000
175.129395 12.000000
175.131252 12.000000
175.134967 12.000000
175.138681 12.000000
175.140538 12.000000
179.507847 10.000000
185.086048 12.000000
185.087957 24.000000
185.089866 24.000000
185.091775 12.000000
185.095594 36.000000
185.097503 12.000000
185.101322 12.000000
185.110869 12.000000
185.114688 12.000000
186.076368 12.000000
186.082111 12.000000
186.099341 12.000000
186.106999 12.000000
187.075089 10.000000
187.203718 10.000000
194.094055 10.000000
195.072874 12.000000
195.078754 36.000000
195.080714 12.000000
195.082674 24.000000
195.084634 12.000000
195.088555 12.000000
195.090515 12.000000
195.094435 12.000000
195.096395 12.000000
199.066223 12.000000
199.086024 12.000000
199.381177 10.000000
203.092033 12.000000
203.096033 12.000000
203.098033 48.000000
203.100033 36.000000
203.102033 48.000000
203.104033 71.000000
203.106033 48.000000
203.108033 24.000000
203.110033 36.000000
203.112033 78.000000
203.114033 24.000000
203.120034 24.000000
203.122034 12.000000
203.502236 10.000000
204.908057 10.000000
205.501112 10.000000
208.092391 10.000000
209.055116 12.000000
209.057145 24.000000
209.061204 12.000000
212.475905 10.000000
213.071610 12.000000
213.079804 36.000000
213.081853 24.000000
213.083901 36.000000
213.087998 12.000000
213.090047 36.000000
213.092096 48.000000
213.096193 24.000000
213.100290 24.000000
213.104388 12.000000
213.110534 12.000000
216.101840 12.000000
216.105966 12.000000
217.101507 10.000000
220.083118 10.000000
226.071473 36.000000
226.077803 12.000000
226.079913 12.000000
226.082023 12.000000
226.088354 24.000000
226.096794 12.000000
226.155884 10.000000
227.066420 12.000000
227.070650 12.000000
227.074879 12.000000
227.079109 12.000000
231.087256 24.000000
231.089390 12.000000
231.091523 12.000000
231.093657 12.000000
231.095790 36.000000
231.097923 36.000000
231.100057 60.000000
231.102190 24.000000
231.104324 36.000000
231.108591 24.000000
231.110724 24.000000
231.117125 12.000000
231.121392 12.000000
231.132059 12.000000
231.403104 10.000000
232.118826 12.000000
232.125240 12.000000
232.127378 12.000000
233.088410 10.000000
234.027810 10.000000
238.083562 12.000000
238.085728 12.000000
241.081232 10.000000
244.084500 24.000000
244.086692 12.000000
244.088885 12.000000
244.091077 12.000000
244.093270 24.000000
244.095463 36.000000
244.097655 12.000000
244.104233 12.000000
244.106426 12.000000
244.110811 12.000000
244.115196 12.000000
249.055952 12.000000
249.073670 12.000000
249.541222 10.000000
250.419895 12.000000
250.422116 12.000000
251.097704 10.000000
252.101651 12.000000
252.119477 12.000000
254.086471 10.000000
255.100852 10.000000
257.119924 10.000000
260.157796 10.000000
261.059485 10.000000
267.114430 10.000000
268.126890 24.000000
268.129188 12.000000
268.131486 113.000000
268.133784 12.000000
268.140678 12.000000
268.142976 12.000000
268.172852 12.000000
269.129753 10.000000
270.104503 12.000000
270.109116 12.000000
270.111422 12.000000
270.113729 24.000000
270.120648 12.000000
270.127568 12.000000
270.132181 12.000000
271.115675 10.000000
272.103272 10.000000
273.115856 12.000000
273.122814 12.000000
273.129772 12.000000
274.102438 10.000000
278.094639 12.000000
278.108681 12.000000
278.113362 12.000000
278.115702 12.000000
278.120383 24.000000
278.122723 12.000000
279.104232 12.000000
279.122989 12.000000
280.512745 10.000000
282.106273 24.000000
282.113345 12.000000
283.031030 12.000000
283.040474 12.000000
283.075890 12.000000
284.122863 10.000000
284.354735 10.000000
286.132392 12.000000
286.139514 12.000000
287.132678 12.000000
287.135056 12.000000
288.110887 12.000000
288.113269 12.000000
288.115651 12.000000
288.127562 12.000000
288.752027 10.000000
291.767020 10.000000
292.059547 12.000000
292.061945 12.000000
296.088206 12.000000
296.093035 12.000000
296.109940 24.000000
296.114770 12.000000
296.117185 12.000000
296.119600 12.000000
296.122014 12.000000
296.124429 12.000000
296.129259 36.000000
296.134090 12.000000
296.136505 24.000000
296.138920 12.000000
296.141335 12.000000
296.148580 12.000000
297.074284 12.000000
297.091216 12.000000
297.098473 12.000000
297.110568 12.000000
297.125082 12.000000
297.137177 12.000000
298.098345 12.000000
298.100768 12.000000
298.108037 24.000000
299.981583 10.000000
300.125010 12.000000
300.129872 24.000000
300.139597 12.000000
301.112911 12.000000
301.151876 12.000000
302.095117 10.000000
304.118168 10.000000
309.128837 10.000000
310.104250 12.000000
310.106721 12.000000
310.114135 12.000000
310.119078 12.000000
313.099302 12.000000
313.121651 12.000000
314.120749 12.000000
314.125724 24.000000
314.128211 24.000000
314.130698 12.000000
314.133186 12.000000
314.135673 63.000000
314.138160 24.000000
314.140648 36.000000
314.143135 24.000000
314.145622 60.000000
314.148110 24.000000
314.150597 48.000000
314.153085 24.000000
314.158060 12.000000
314.897265 10.000000
315.113964 12.000000
315.126421 24.000000
315.161299 12.000000
315.829352 10.000000
316.111243 10.000000
320.183911 10.000000
321.148933 12.000000
321.158993 12.000000
321.164023 12.000000
325.114631 10.000000
326.132667 10.000000
326.193496 10.000000
326.873134 10.000000
327.119297 12.000000
327.131988 12.000000
327.142142 12.000000
329.091935 12.000000
329.117395 12.000000
331.119022 12.000000
331.126683 12.000000
331.131791 12.000000
331.136898 12.000000
331.147113 12.000000
331.154775 12.000000
331.157329 12.000000
332.115718 12.000000
332.141294 12.000000
332.143851 12.000000
332.148967 24.000000
332.151524 12.000000
332.161755 12.000000
335.143051 10.000000
337.178353 12.000000
337.183507 12.000000
338.104119 12.000000
338.114442 12.000000
338.122183 12.000000
338.135086 12.000000
338.171216 12.000000
338.184120 12.000000
338.186701 24.000000
338.189281 12.000000
338.194443 12.000000
338.204767 24.000000
339.095759 12.000000
339.119018 12.000000
340.153556 10.000000
341.181892 10.000000
342.601311 10.000000
345.128233 12.000000
345.133447 24.000000
345.141269 12.000000
345.146483 12.000000
345.156912 12.000000
345.172556 12.000000
346.124891 10.000000
346.788385 10.000000
347.177896 10.000000
347.850251 10.000000
348.130373 10.000000
349.564158 10.000000
350.070749 10.000000
350.136397 10.000000
351.145514 10.000000
352.116581 10.000000
353.154919 10.000000
354.178939 10.000000
355.117162 12.000000
355.125096 12.000000
355.127741 12.000000
355.133030 12.000000
356.104295 12.000000
356.109591 24.000000
356.112240 12.000000
356.117537 12.000000
356.130778 12.000000
358.167656 10.000000
359.161676 12.000000
359.198912 12.000000
362.168026 24.000000
365.109135 10.000000
367.139223 12.000000
367.147290 12.000000
368.129451 10.000000
370.221911 10.000000
371.173023 10.000000
372.144306 10.000000
373.119569 12.000000
373.124991 12.000000
373.138546 24.000000
373.146678 12.000000
373.149389 12.000000
373.152100 12.000000
373.157522 12.000000
373.160233 12.000000
377.199629 10.000000
378.189677 10.000000
379.150963 12.000000
379.161894 12.000000
379.167359 12.000000
379.175557 12.000000
380.129886 12.000000
380.162721 12.000000
380.165457 12.000000
380.168193 12.000000
381.129249 12.000000
381.134729 12.000000
381.140208 12.000000
381.145688 12.000000
381.153908 12.000000
381.370388 10.000000
383.164876 10.000000
384.151714 12.000000
384.168218 12.000000
384.170969 12.000000
389.135395 24.000000
390.193645 12.000000
390.210278 12.000000
391.095119 10.000000
392.042092 10.000000
393.146022 10.000000
393.635919 10.000000
394.140051 10.000000
395.096280 10.000000
395.185550 12.000000
395.188340 12.000000
395.191129 12.000000
395.196709 24.000000
395.199499 24.000000
395.202289 113.000000
395.205079 36.000000
395.207869 12.000000
395.210659 63.000000
395.213449 64.000000
395.216239 12.000000
395.219029 36.000000
395.221819 48.000000
395.224609 12.000000
395.227399 60.000000
395.230189 12.000000
395.238559 24.000000
395.241349 12.000000
395.523193 10.000000
395.802346 10.000000
396.170978 12.000000
396.207292 12.000000
396.212879 12.000000
396.215673 24.000000
397.168821 12.000000
397.177211 12.000000
398.156717 10.000000
399.078553 10.000000
399.185095 10.000000
400.144614 10.000000
400.928232 10.000000
401.167121 10.000000
402.134646 12.000000
402.165603 24.000000
402.171232 12.000000
403.123060 12.000000
403.128695 12.000000
403.187870 10.000000
403.644507 10.000000
405.196745 12.000000
405.208045 12.000000
406.132347 10.000000
407.119995 12.000000
407.125658 12.000000
407.134153 12.000000
407.148312 12.000000
407.156807 12.000000
407.162471 24.000000
407.165303 24.000000
407.170966 12.000000
407.193621 12.000000
408.151370 12.000000
408.176888 12.000000
408.191065 12.000000
410.169716 10.000000
411.133802 12.000000
411.148030 12.000000
411.150876 12.000000
411.159413 12.000000
412.136057 10.000000
415.187315 36.000000
415.190174 12.000000
415.201613 12.000000
415.830968 10.000000
416.188769 10.000000
418.195296 12.000000
418.206776 12.000000
418.502434 10.000000
419.045222 10.000000
419.171637 10.000000
421.070135 10.000000
422.159388 12.000000
422.176689 12.000000
423.114361 10.000000
424.131105 12.000000
424.133995 12.000000
424.145556 12.000000
425.102771 12.000000
425.151962 12.000000
425.172219 24.000000
425.175112 12.000000
425.178006 12.000000
425.183794 12.000000
425.186687 12.000000
425.198263 12.000000
426.119003 10.000000
428.172530 10.000000
429.163348 10.000000
429.666460 10.000000
433.140994 12.000000
433.187728 12.000000
433.196490 12.000000
433.199411 12.000000
435.220135 10.000000
437.139923 10.000000
437.204478 12.000000
437.216216 12.000000
439.137455 12.000000
439.163924 12.000000
441.157227 10.000000
442.151144 12.000000
442.159997 12.000000
442.171801 12.000000
443.149135 12.000000
443.166861 12.000000
443.172769 24.000000
443.181632 12.000000
443.184587 24.000000
443.190496 12.000000
443.193450 12.000000
443.196405 24.000000
443.199359 12.000000
443.205268 12.000000
443.214132 12.000000
443.228904 12.000000
446.161713 12.000000
446.200250 12.000000
446.206179 12.000000
446.212108 12.000000
446.223966 24.000000
447.152346 12.000000
447.155313 12.000000
450.139769 10.000000
451.179519 12.000000
451.200386 12.000000
456.162438 12.000000
456.180423 12.000000
457.134100 12.000000
457.167107 12.000000
457.170108 12.000000
457.185111 12.000000
457.191112 12.000000
457.197114 12.000000
457.212118 12.000000
459.185774 12.000000
459.233892 12.000000
459.691136 12.000000
459.697154 12.000000
460.202797 10.000000
461.160667 12.000000
461.163681 12.000000
461.199847 12.000000
461.202861 12.000000
461.208888 12.000000
461.233000 12.000000
465.801386 10.000000
467.183571 12.000000
467.189638 12.000000
467.195705 12.000000
468.215481 10.000000
472.180664 12.000000
472.241657 10.000000
473.208916 10.000000
474.180221 12.000000
474.183277 12.000000
474.186333 24.000000
475.173936 10.000000
475.544169 10.000000
476.174816 12.000000
476.184003 12.000000
477.167552 10.000000
478.158253 12.000000
478.176666 12.000000
480.219618 10.000000
482.159064 10.000000
483.324608 10.000000
484.161089 10.000000
485.189931 10.000000
489.204472 10.000000
490.182727 10.000000
491.466808 10.000000
492.129715 12.000000
492.176415 12.000000
493.223085 10.000000
494.167911 12.000000
494.177270 12.000000
494.186629 12.000000
494.192869 24.000000
494.199108 12.000000
494.745229 10.000000
495.157359 12.000000
495.172973 12.000000
495.176096 24.000000
495.194834 12.000000
495.204203 12.000000
496.154049 12.000000
496.179057 12.000000
496.207192 12.000000
497.161128 10.000000
501.174522 10.000000
502.218131 10.000000
503.162085 12.000000
503.168381 12.000000
503.206158 12.000000
503.212454 12.000000
504.166794 12.000000
504.173097 12.000000
504.182550 24.000000
505.172506 10.000000
506.223425 12.000000
506.226583 12.000000
506.232898 12.000000
506.236055 12.000000
506.245528 12.000000
506.255001 12.000000
507.212221 12.000000
507.221703 12.000000
507.224864 24.000000
509.164207 12.000000
509.170540 12.000000
509.180041 12.000000
511.205610 12.000000
511.234168 12.000000
511.735647 10.000000
511.996005 10.000000
512.183377 12.000000
512.189729 12.000000
512.199258 12.000000
512.231020 12.000000
513.177974 10.000000
514.167171 12.000000
514.183083 12.000000
516.234512 10.000000
517.188350 10.000000
519.255354 10.000000
520.173567 12.000000
520.186371 12.000000
520.224781 12.000000
521.169481 12.000000
521.211131 12.000000
522.188795 12.000000
522.224072 12.000000
522.734120 10.000000
523.167375 12.000000
523.180215 12.000000
523.183425 12.000000
523.186635 12.000000
523.212316 12.000000
523.215526 12.000000
523.857744 10.000000
524.134019 10.000000
524.204706 12.000000
524.220772 12.000000
524.230412 12.000000
524.240051 12.000000
524.243265 12.000000
524.246478 12.000000
524.249691 12.000000
524.252904 24.000000
524.256118 12.000000
524.259331 48.000000
524.262544 24.000000
524.268971 36.000000
524.285038 36.000000
524.860392 10.000000
525.278445 10.000000
526.185870 10.000000
526.433778 12.000000
526.475638 12.000000
527.819273 10.000000
529.209818 10.000000
530.201415 10.000000
530.417945 10.000000
531.197174 12.000000
531.213346 12.000000
531.268335 12.000000
532.210055 10.000000
532.287760 10.000000
532.588919 10.000000
532.737912 10.000000
534.212762 12.000000
534.228980 12.000000
535.176566 12.000000
535.196045 12.000000
535.218772 12.000000
537.627296 10.000000
538.747261 10.000000
539.196877 12.000000
539.200136 12.000000
539.209912 12.000000
539.222948 12.000000
540.201044 12.000000
540.210829 12.000000
540.214091 24.000000
540.223877 12.000000
540.227138 12.000000
540.713267 10.000000
541.232264 12.000000
541.248588 12.000000
541.842974 10.000000
542.454029 12.000000
542.463834 12.000000
542.748242 10.000000
543.212607 12.000000
543.215878 12.000000
544.181218 12.000000
544.213957 12.000000
547.184144 10.000000
551.199798 12.000000
551.212978 12.000000
551.717209 10.000000
552.178799 12.000000
552.215075 12.000000
553.244490 10.000000
555.273125 10.000000
556.715908 10.000000
557.196147 12.000000
557.229275 12.000000
557.235900 12.000000
557.242526 12.000000
558.183772 12.000000
558.203666 12.000000
558.210297 24.000000
558.230192 12.000000
561.085406 10.000000
562.212893 12.000000
562.246170 12.000000
562.249497 12.000000
564.137885 12.000000
564.144552 12.000000
564.204553 12.000000
565.688926 10.000000
570.703442 10.000000
571.689539 10.000000
572.424633 10.000000
572.817549 12.000000
572.847779 12.000000
573.230759 10.000000
573.694538 10.000000
575.245188 12.000000
575.255286 12.000000
575.272116 12.000000
575.275482 12.000000
577.239548 10.000000
577.688079 10.000000
578.508028 10.000000
579.233981 10.000000
580.169950 12.000000
580.210514 12.000000
582.213456 12.000000
582.216842 12.000000
584.786464 10.000000
585.743889 10.000000
586.821079 10.000000
587.232507 10.000000
588.249794 12.000000
588.253198 12.000000
589.227081 10.000000
590.232456 10.000000
592.204793 12.000000
592.238945 12.000000
593.185359 24.000000
593.240049 12.000000
593.722109 10.000000
594.269366 10.000000
596.200456 12.000000
596.231297 12.000000
596.251858 12.000000
596.258711 12.000000
597.235767 10.000000
597.753759 10.000000
600.219868 12.000000
600.230183 12.000000
600.247374 12.000000
603.256215 12.000000
603.270002 24.000000
603.273449 12.000000
604.242434 12.000000
604.252784 24.000000
605.215650 12.000000
605.236365 12.000000
606.203469 10.000000
608.295741 10.000000
608.756179 12.000000
608.766566 12.000000
609.199471 12.000000
609.202935 12.000000
609.272214 10.000000
610.204401 12.000000
610.239069 12.000000
614.221972 12.000000
614.274144 12.000000
614.277622 12.000000
615.220592 12.000000
615.224073 12.000000
617.286512 12.000000
617.289999 12.000000
617.321381 12.000000
617.750339 24.000000
617.771268 12.000000
619.010176 10.000000
619.247630 10.000000
620.292268 12.000000
620.299258 12.000000
620.348193 12.000000
621.253832 24.000000
621.257330 12.000000
621.260828 24.000000
621.271322 12.000000
621.278318 12.000000
621.281816 12.000000
621.285314 12.000000
621.292310 12.000000
621.295808 12.000000
621.306303 12.000000
622.737849 10.000000
623.189706 10.000000
624.244675 10.000000
624.391951 10.000000
624.690062 10.000000
625.293517 10.000000
626.265973 12.000000
626.283533 12.000000
626.473200 10.000000
627.204037 12.000000
627.221611 12.000000
627.246214 12.000000
628.230739 12.000000
628.248327 12.000000
628.283503 12.000000
629.212515 10.000000
630.508648 10.000000
632.218903 12.000000
632.250661 12.000000
632.257719 12.000000
632.645946 10.000000
632.797740 10.000000
633.224978 12.000000
633.228510 12.000000
633.232041 12.000000
635.274901 10.000000
636.127653 10.000000
636.205526 10.000000
637.345851 10.000000
638.242536 12.000000
638.267355 24.000000
638.270900 36.000000
638.274446 24.000000
638.277991 12.000000
638.281537 12.000000
638.288628 99.000000
638.292173 48.000000
638.295719 48.000000
638.299265 24.000000
638.302810 117.000000
638.306356 24.000000
638.309902 36.000000
638.313447 60.000000
638.316993 48.000000
638.320539 24.000000
638.324084 12.000000
638.331176 12.000000
638.338267 12.000000
638.359542 12.000000
638.377271 12.000000
638.738997 10.000000
639.260488 12.000000
639.288874 12.000000
639.292423 24.000000
639.303068 12.000000
639.306616 12.000000
640.229536 10.000000
640.382237 10.000000
641.241963 10.000000
641.636493 10.000000
642.244520 10.000000
642.692724 10.000000
645.253325 12.000000
645.271149 12.000000
648.208418 10.000000
648.283454 10.000000
649.252163 10.000000
650.171496 12.000000
650.178653 12.000000
650.253803 12.000000
650.296747 12.000000
650.307484 12.000000
651.191750 12.000000
651.202494 24.000000
651.227563 12.000000
651.245470 12.000000
654.828194 10.000000
655.744277 10.000000
657.304887 10.000000
658.215500 10.000000
658.298314 10.000000
658.683649 12.000000
658.716065 12.000000
658.788105 12.000000
658.795309 12.000000
659.227631 12.000000
659.260061 12.000000
659.278077 12.000000
659.977324 10.000000
660.301843 24.000000
660.648084 10.000000
662.304804 10.000000
664.285479 10.000000
665.276926 10.000000
666.236510 12.000000
666.250999 12.000000
667.247536 12.000000
667.262037 12.000000
667.769656 10.000000
668.172263 12.000000
668.241190 12.000000
668.259329 12.000000
668.687486 12.000000
668.705632 12.000000
668.709261 12.000000
668.781844 10.000000
669.264627 12.000000
669.268258 12.000000
672.106767 10.000000
674.295163 10.000000
676.268126 10.000000
676.687889 10.000000
677.294038 10.000000
678.686284 12.000000
678.704564 12.000000
678.733813 12.000000
